#Wave		#Intensity
3201.549805	144.420578
3200.847656	170.342224
3200.145508	111.072929
3199.443359	144.369049
3198.740234	133.239960
3198.038086	99.912132
3197.334961	210.887970
3196.632813	144.266006
3195.929688	188.621872
3195.226563	118.329857
3194.523438	140.491623
3193.819336	140.466537
3193.116211	140.441467
3192.412109	107.159874
3191.708984	206.892456
3191.004883	147.753937
3190.300781	177.273071
3189.596680	140.316116
3188.892578	188.285370
3188.188477	129.192368
3187.483398	184.527557
3186.779297	195.564270
3186.074219	132.812378
3185.369141	121.722939
3184.664063	143.828674
3183.958984	121.679443
3183.253906	151.150482
3182.548828	129.007843
3181.842773	147.411194
3181.137695	173.177200
3180.431641	158.410400
3179.725586	162.065384
3179.019531	125.209961
3178.313477	136.233551
3177.607422	132.527863
3176.901367	154.588196
3176.194336	139.840515
3175.488281	161.891647
3174.781250	143.469208
3174.074219	128.731400
3173.367188	161.804825
3172.660156	154.422440
3171.953125	110.282013
3171.245117	158.042618
3170.538086	161.689102
3169.830078	124.919235
3169.122070	161.631271
3168.414063	176.293488
3167.706055	209.311050
3166.998047	154.201614
3166.290039	132.149155
3165.582031	135.795670
3164.873047	176.135834
3164.164063	154.091278
3163.455078	198.081894
3162.747070	124.695915
3162.037109	135.674210
3161.328125	139.316147
3160.619141	95.304504
3159.909180	194.239792
3159.200195	157.562576
3158.490234	175.852310
3157.780273	179.483765
3157.070313	194.100739
3156.360352	106.187050
3155.650391	172.065430
3154.940430	131.771194
3154.229492	124.428291
3153.519531	117.088005
3152.808594	149.992142
3152.097656	135.334518
3151.386719	138.967316
3150.675781	146.255173
3149.963867	230.310638
3149.252930	138.892639
3148.541016	124.250099
3147.830078	138.842880
3147.118164	146.124207
3146.406250	146.098022
3145.694336	124.161064
3144.982422	178.905945
3144.269531	164.271927
3143.557617	145.993317
3142.844727	124.072083
3142.132813	207.965912
3141.419922	105.788246
3140.707031	207.891357
3139.994141	167.741882
3139.280273	164.065903
3138.567383	178.617508
3137.854492	145.784073
3137.140625	156.689774
3136.426758	138.445190
3135.712891	200.345276
3134.999023	145.679520
3134.285156	178.425400
3133.571289	178.393402
3132.856445	131.041031
3132.142578	156.493149
3131.427734	152.826355
3130.712891	229.198395
3129.998047	181.870850
3129.283203	174.564682
3128.568359	170.897247
3127.853516	149.053833
3127.137695	152.661880
3126.422852	174.439407
3125.707031	254.345154
3124.991211	188.908203
3124.275391	141.655716
3123.559570	156.156479
3122.843750	167.021118
3122.126953	170.621384
3121.411133	221.405014
3120.694336	217.736313
3119.977539	177.786057
3119.260742	163.243591
3118.543945	170.468246
3117.827148	116.042641
3117.110352	195.786789
3116.392578	123.251022
3115.675781	170.345810
3114.958008	159.444031
3114.240234	206.515381
3113.522461	173.876450
3112.804688	220.928284
3112.086914	177.435089
3111.369141	191.885101
3110.650391	119.454163
3109.931641	188.196976
3109.213867	170.070541
3108.495117	188.129333
3107.776367	126.602753
3107.057617	177.212006
3106.337891	166.332382
3105.619141	126.534492
3104.899414	180.731064
3104.180664	140.944885
3103.460938	148.146194
3102.741211	191.471619
3102.021484	162.541000
3101.300781	151.677658
3100.581055	133.596771
3099.861328	184.113770
3099.140625	155.205261
3098.419922	194.873871
3097.699219	158.757553
3096.978516	155.121521
3096.257813	194.768723
3095.537109	212.764587
3094.815430	216.331833
3094.094727	219.897797
3093.373047	158.586258
3092.651367	183.782806
3091.929688	198.161484
3091.208008	223.341827
3090.486328	165.675415
3089.764648	244.867386
3089.041992	129.612350
3088.320313	161.986267
3087.597656	158.358063
3086.875000	176.321533
3086.152344	215.865051
3085.429688	154.675430
3084.707031	172.629868
3083.983398	161.811356
3083.260742	219.304779
3082.537109	165.347595
3081.813477	208.444199
3081.089844	172.474472
3080.366211	215.554260
3079.642578	183.188110
3078.917969	165.198730
3078.194336	136.443924
3077.469727	218.988953
3076.746094	215.360153
3076.021484	229.676102
3075.296875	157.873871
3074.572266	240.355530
3073.846680	208.031464
3073.122070	172.132950
3072.396484	150.589172
3071.671875	186.410141
3070.946289	164.871552
3070.220703	204.260529
3069.495117	175.560730
3068.769531	225.680237
3068.042969	236.384293
3067.317383	153.980179
3066.590820	175.434143
3065.864258	161.083939
3065.137695	214.739853
3064.411133	182.495956
3063.684570	164.574509
3062.958008	164.544815
3062.230469	203.855713
3061.503906	139.455063
3060.776367	150.155289
3060.048828	157.277161
3059.321289	218.003998
3058.593750	232.257416
3057.866211	167.909683
3057.138672	185.738892
3056.410156	199.990387
3055.682617	199.954300
3054.954102	224.907990
3054.225586	185.604828
3053.497070	246.238876
3052.768555	164.129623
3052.039063	206.908676
3051.310547	196.171082
3050.581055	203.267868
3049.852539	210.362091
3049.123047	188.935211
3048.393555	185.336929
3047.664063	171.049347
3046.933594	174.581329
3046.204102	178.112045
3045.473633	174.518280
3044.744141	160.242935
3044.013672	192.256790
3043.283203	210.020401
3042.552734	185.069275
3041.822266	217.061279
3041.090820	252.599442
3040.360352	213.425751
3039.628906	209.830734
3038.898438	245.350906
3038.166992	177.758377
3037.435547	213.271515
3036.703125	191.909668
3035.971680	209.641174
3035.240234	223.813675
3034.507813	245.084946
3033.776367	198.873566
3033.043945	213.040298
3032.311523	213.001770
3031.579102	234.259583
3030.845703	234.217224
3030.113281	262.559692
3029.379883	258.964752
3028.647461	219.902893
3027.914063	205.678391
3027.180664	212.732269
3026.447266	219.783585
3025.713867	230.376587
3024.980469	240.965744
3024.246094	226.750259
3023.512695	208.997574
3022.778320	223.126526
3022.043945	166.429352
3021.309570	219.505371
3020.575195	251.323547
3019.840820	169.878128
3019.105469	191.078308
3018.371094	237.035721
3017.635742	162.711487
3016.900391	226.340225
3016.165039	205.083694
3015.429688	190.905411
3014.694336	229.751953
3013.958008	332.196503
3013.222656	236.735489
3012.486328	229.627167
3011.750000	236.649750
3011.014648	257.795563
3010.278320	222.440811
3009.541016	264.762512
3008.804688	236.478333
3008.068359	257.608826
3007.331055	243.449158
3006.593750	257.515503
3005.856445	236.307007
3005.119141	229.211533
3004.381836	282.055389
3003.644531	218.553299
3002.907227	211.464874
3002.168945	225.521652
3001.430664	236.050186
3000.692383	236.007401
2999.954102	228.920898
2999.215820	323.952362
2998.477539	204.193817
2997.739258	306.235199
2997.000000	288.583130
2996.261719	285.012146
2995.522461	263.852264
2994.783203	253.252258
2994.043945	305.957642
2993.304688	270.740997
2992.564453	260.145447
2991.825195	323.365387
2991.084961	302.221527
2990.344727	281.085297
2989.605469	351.292877
2988.865234	330.155396
2988.124023	354.677063
2987.383789	344.079651
2986.643555	277.320007
2985.902344	270.250183
2985.161133	343.892365
2984.420898	326.287598
2983.679688	343.767548
2982.937500	322.661987
2982.196289	322.603394
2981.455078	329.556671
2980.712891	322.486267
2979.971680	357.474213
2979.229492	325.873199
2978.487305	325.814026
2977.745117	336.263092
2977.001953	360.716766
2976.259766	332.639496
2975.517578	378.089905
2974.774414	357.020050
2974.031250	325.459167
2973.288086	367.387146
2972.544922	332.337494
2971.801758	304.295898
2971.058594	325.222717
2970.314453	360.127441
2969.571289	356.566254
2968.827148	366.986816
2968.083008	352.942200
2967.338867	342.396545
2966.594727	307.402222
2965.849609	324.809235
2965.105469	356.177612
2964.360352	394.517212
2963.616211	352.557465
2962.871094	349.003326
2962.125977	404.770264
2961.380859	390.741608
2960.634766	296.491058
2959.889648	331.312073
2959.143555	449.805115
2958.398438	393.943695
2957.652344	376.444061
2956.906250	386.830475
2956.160156	397.213074
2955.414063	421.526672
2954.666992	341.339661
2953.920898	410.926025
2953.173828	463.078125
2952.426758	529.135864
2951.679688	483.792755
2950.932617	452.385712
2950.185547	483.616699
2949.438477	417.434845
2948.690430	452.138763
2947.942383	493.784760
2947.195313	476.311249
2946.447266	465.796265
2945.699219	427.481415
2944.951172	462.151855
2944.202148	475.964478
2943.454102	444.615753
2942.705078	461.899445
2941.956055	479.176819
2941.207031	433.957916
2940.458008	506.770538
2939.708984	385.214264
2938.959961	454.539459
2938.209961	461.394928
2937.460938	385.003815
2936.710938	464.694702
2935.960938	412.601440
2935.210938	502.658051
2934.460938	481.770599
2933.710938	440.098694
2932.959961	433.089081
2932.209961	412.225647
2931.458984	415.613983
2930.708008	446.703583
2929.957031	439.697784
2929.206055	463.848541
2928.455078	460.303040
2927.703125	432.536774
2926.952148	494.731842
2926.200195	415.083893
2925.448242	484.176239
2924.696289	525.581238
2923.944336	483.999664
2923.192383	504.650452
2922.440430	570.220154
2921.687500	480.279663
2920.934570	497.465149
2920.182617	500.828369
2919.429688	490.376923
2918.676758	469.571106
2917.922852	524.718994
2917.169922	555.686462
2916.416016	455.510742
2915.663086	527.882019
2914.909180	527.785706
2914.155273	489.750916
2913.401367	579.317871
2912.647461	506.810608
2911.892578	537.741638
2911.138672	523.857727
2910.383789	499.641510
2909.628906	516.776123
2908.874023	551.127258
2908.119141	499.367859
2907.364258	488.946808
2906.609375	523.284119
2905.853516	540.398682
2905.098633	523.093018
2904.342773	595.253662
2903.586914	474.739899
2902.831055	491.850769
2902.075195	515.833130
2901.318359	484.794556
2900.562500	477.830719
2899.805664	402.129364
2899.048828	432.983246
2898.292969	474.133087
2897.535156	436.260132
2896.778320	405.269989
2896.021484	412.063629
2895.263672	422.288025
2894.506836	459.969543
2893.749023	398.109802
2892.991211	428.919189
2892.233398	370.518433
2891.475586	387.601196
2890.717773	329.229279
2889.958984	397.745972
2889.201172	387.388611
2888.442383	397.600525
2887.683594	356.404236
2886.924805	301.517670
2886.166016	376.828125
2885.406250	363.058868
2884.647461	366.416901
2883.887695	352.654572
2883.127930	362.859650
2882.369141	338.835205
2881.609375	352.461029
2880.848633	383.188446
2880.088867	338.649231
2879.329102	369.367920
2878.568359	389.817017
2877.807617	324.788055
2877.046875	369.165131
2876.286133	297.328583
2875.525391	379.280823
2874.764648	324.550293
2874.002930	413.298889
2873.242188	334.676666
2872.480469	375.588684
2871.718750	399.416626
2870.957031	375.451141
2870.195313	324.193878
2869.433594	358.253906
2868.670898	392.301483
2867.909180	341.069214
2867.146484	405.798035
2866.383789	385.267029
2865.621094	378.378815
2864.858398	385.125885
2864.094727	350.979614
2863.332031	395.205566
2862.568359	327.006744
2861.805664	361.003784
2861.041992	364.342682
2860.278320	292.782501
2859.513672	415.266510
2858.750000	350.529572
2857.986328	340.257599
2857.221680	282.362030
2856.457031	340.132843
2855.692383	336.669769
2854.927734	353.608459
2854.163086	363.741974
2853.398438	339.883423
2852.632813	343.219299
2851.868164	387.324982
2851.102539	343.093414
2850.336914	288.689026
2849.571289	349.759003
2848.805664	370.065399
2848.040039	295.319122
2847.273438	332.597260
2846.506836	383.434662
2845.741211	332.475220
2844.974609	335.806183
2844.208008	403.571747
2843.440430	298.384857
2842.673828	349.181793
2841.907227	338.949219
2841.139648	355.831360
2840.372070	345.601288
2839.604492	342.150208
2838.836914	362.409424
2838.069336	311.547150
2837.301758	308.104187
2836.533203	352.054413
2835.765625	341.836212
2834.997070	297.782776
2834.228516	294.344818
2833.459961	355.178497
2832.691406	331.439026
2831.921875	253.605728
2831.153320	354.982788
2830.383789	283.934052
2829.614258	368.370544
2828.844727	361.545013
2828.075195	341.208740
2827.305664	361.412140
2826.536133	364.722809
2825.765625	351.149994
2824.995117	347.709625
2824.225586	347.645721
2823.455078	361.080139
2822.684570	323.900208
2821.913086	354.200714
2821.142578	296.799347
2820.371094	327.093689
2819.600586	323.662048
2818.829102	316.860809
2818.057617	326.913269
2817.286133	303.265808
2816.514648	316.686035
2815.742188	330.101288
2814.970703	343.511627
2814.198242	316.511292
2813.425781	343.385254
2812.653320	329.858459
2811.880859	353.354736
2811.108398	353.289734
2810.334961	363.316864
2809.562500	366.613434
2808.789063	376.634369
2808.015625	279.061615
2807.242188	329.433777
2806.468750	416.757843
2805.695313	332.672821
2804.920898	342.690735
2804.146484	386.295868
2803.373047	396.300171
2802.598633	396.227203
2801.824219	302.151550
2801.049805	412.864410
2800.274414	375.872345
2799.500000	315.406189
2798.724609	362.314819
2797.949219	338.769043
2797.174805	338.706635
2796.399414	362.114655
2795.623047	365.400238
2794.847656	395.498016
2794.071289	325.052856
2793.295898	425.506256
2792.519531	442.176971
2791.743164	331.571625
2790.966797	368.345001
2790.190430	421.844696
2789.413086	384.946014
2788.636719	344.714203
2787.859375	364.727386
2787.082031	337.896088
2786.304688	357.903137
2785.527344	351.148590
2784.750000	421.300629
2783.972656	367.734314
2783.194336	324.214996
2782.416016	350.889648
2781.638672	344.142578
2780.860352	267.245880
2780.081055	404.134857
2779.302734	377.345581
2778.524414	370.598511
2777.745117	383.882568
2776.965820	327.074371
2776.187500	410.435944
2775.408203	370.325073
2774.627930	383.599335
2773.848633	306.822815
2773.069336	433.473969
2772.289063	353.382782
2771.508789	403.315308
2770.728516	376.580322
2769.948242	369.846893
2769.167969	353.121918
2768.387695	409.679016
2767.606445	352.991516
2766.826172	432.834198
2766.044922	422.767639
2765.263672	369.437347
2764.482422	366.041443
2763.701172	389.263092
2762.918945	412.476135
2762.137695	385.793488
2761.355469	399.023010
2760.573242	412.247589
2759.791016	388.903687
2759.008789	461.945496
2758.226563	355.532623
2757.443359	401.976624
2756.661133	395.259338
2755.877930	408.469849
2755.094727	365.230743
2754.311523	408.318878
2753.528320	391.648132
2752.745117	358.391357
2751.960938	358.325104
2751.177734	431.237518
2750.393555	444.424164
2749.609375	427.762085
2748.825195	424.367615
2748.041016	450.807190
2747.256836	384.440918
2746.471680	404.251007
2745.686523	410.802063
2744.902344	433.912231
2744.117188	417.273499
2743.332031	403.951965
2742.545898	357.530670
2741.760742	426.971527
2740.974609	390.490845
2740.189453	377.184052
2739.403320	459.814728
2738.617188	410.118530
2737.831055	433.190186
2737.044922	373.598724
2736.257813	409.890839
2735.470703	393.290192
2734.684570	429.565186
2733.897461	436.093140
2733.110352	488.862396
2732.323242	416.116608
2731.535156	425.945251
2730.748047	425.866364
2729.959961	429.088196
2729.172852	445.509064
2728.384766	376.137970
2727.596680	458.539398
2726.807617	385.893341
2726.019531	478.155273
2725.230469	398.938416
2724.442383	421.939301
2723.653320	441.635864
2722.864258	418.487793
2722.075195	424.999390
2721.286133	484.211853
2720.496094	470.948730
2719.707031	418.177643
2718.916992	444.437164
2718.126953	447.646301
2717.336914	480.472382
2716.546875	391.545288
2715.755859	437.528320
2714.965820	467.048889
2714.174805	440.654541
2713.384766	440.572815
2712.593750	443.778381
2711.802734	506.142181
2711.010742	430.469666
2710.219727	410.677307
2709.428711	479.582123
2708.636719	407.240753
2707.844727	453.135498
2707.052734	436.636505
2706.260742	459.532104
2705.468750	449.601532
2704.675781	423.268890
2703.883789	455.995789
2703.090820	416.551910
2702.297852	445.988556
2701.504883	485.250397
2700.711914	426.154358
2699.918945	429.352753
2699.125000	452.211304
2698.331055	478.337616
2697.538086	445.492035
2696.744141	451.959442
2695.950195	487.894592
2695.155273	445.243927
2694.361328	451.707703
2693.567383	448.351196
2692.772461	438.451813
2691.977539	484.170258
2691.182617	477.538696
2690.387695	431.667114
2689.592773	510.057251
2688.796875	444.582703
2688.001953	437.963318
2687.206055	522.844116
2686.410156	591.357483
2685.614258	489.984192
2684.818359	444.169769
2684.021484	542.047607
2683.225586	434.210449
2682.428711	460.242798
2681.631836	430.785492
2680.834961	437.231232
2680.038086	473.035400
2679.241211	538.181580
2678.444336	433.726288
2677.646484	462.990082
2676.848633	498.762726
2676.050781	456.299316
2675.252930	456.214447
2674.455078	488.710266
2673.657227	524.451477
2672.859375	504.812744
2672.060547	524.256348
2671.261719	494.858002
2670.462891	530.571350
2669.664063	520.709290
2668.865234	488.074127
2668.065430	468.463989
2667.266602	429.345398
2666.466797	520.321777
2665.666992	477.956665
2664.867188	500.623291
2664.067383	510.280670
2663.267578	516.684875
2662.466797	542.580566
2661.666992	480.760284
2660.866211	457.936340
2660.065430	513.052979
2659.264648	542.176514
2658.463867	532.337646
2657.663086	516.011719
2656.861328	480.223328
2656.059570	574.214172
2655.257813	489.775055
2654.457031	525.356140
2653.654297	505.804260
2652.852539	453.842316
2652.050781	486.169006
2651.248047	469.875793
2650.445313	482.747894
2649.642578	524.769043
2648.839844	482.567963
2648.037109	524.573425
2647.234375	443.538025
2646.430664	504.956451
2645.627930	466.026764
2644.824219	575.953430
2644.020508	504.674072
2643.216797	507.814453
2642.412109	533.590820
2641.608398	481.758820
2640.803711	517.228455
2640.000000	526.828186
2639.195313	562.276123
2638.390625	523.400757
2637.584961	529.763672
2636.780273	536.124146
2635.975586	490.817291
2635.169922	523.010315
2634.364258	555.191284
2633.558594	526.042358
2632.752930	554.984070
2631.947266	548.428406
2631.140625	554.776917
2630.334961	512.750366
2629.528320	551.345581
2628.721680	528.677185
2627.915039	518.909363
2627.108398	567.148987
2626.300781	509.050079
2625.494141	573.379700
2624.686523	492.756805
2623.878906	550.625366
2623.071289	508.669922
2622.263672	524.669067
2621.456055	553.535095
2620.648438	537.343567
2619.839844	575.847473
2619.031250	543.575623
2618.222656	495.236755
2617.414063	495.144196
2616.605469	523.983276
2615.796875	575.309692
2614.987305	581.629028
2614.177734	578.307495
2613.369141	552.501648
2612.559570	558.821594
2611.749023	545.873047
2610.939453	520.087646
2610.129883	571.347534
2609.319336	529.520874
2608.508789	596.802795
2607.698242	545.362915
2606.887695	529.223877
2606.077148	541.952148
2605.266602	525.819702
2604.455078	525.721375
2603.644531	589.723389
2602.833008	528.729126
2602.021484	583.095154
2601.208984	557.360291
2600.397461	509.216675
2599.585938	585.969910
2598.773438	537.838928
2597.960938	521.734131
2597.148438	588.841248
2596.335938	547.135864
2595.523438	591.819824
2594.710938	636.487061
2593.897461	575.609131
2593.083984	572.304138
2592.270508	575.393616
2591.457031	536.933533
2590.643555	584.764465
2589.830078	581.460144
2589.015625	594.128174
2588.202148	613.178772
2587.387695	584.326538
2586.573242	622.526428
2585.758789	616.026123
2584.944336	635.058167
2584.128906	571.126221
2583.313477	622.060059
2582.499023	558.154419
2581.683594	567.616394
2580.868164	513.309631
2580.052734	647.095215
2579.236328	608.729187
2578.420898	618.174500
2577.604492	611.686890
2576.788086	611.572205
2575.971680	592.349487
2575.155273	601.790649
2574.338867	620.778748
2573.521484	557.004639
2572.704102	681.009399
2571.887695	610.884521
2571.070313	604.407776
2570.252930	645.640869
2569.434570	607.360962
2568.617188	604.067749
2567.798828	619.847961
2566.981445	670.581421
2566.163086	597.372803
2565.344727	638.560669
2564.526367	606.677612
2563.707031	654.199646
2562.888672	635.026123
2562.069336	599.987061
2561.250000	609.396240
2560.430664	666.402039
2559.611328	637.722229
2558.791992	599.536682
2557.971680	656.512146
2557.152344	602.482544
2556.332031	637.243469
2555.511719	602.256348
2554.691406	633.834961
2553.871094	617.873047
2553.049805	620.924988
2552.229492	608.138794
2551.408203	661.860107
2550.586914	645.904785
2549.765625	598.299377
2548.944336	677.312195
2548.122070	648.705200
2547.300781	601.126038
2546.478516	648.461487
2545.656250	619.875916
2544.833984	651.379822
2544.011719	613.320068
2543.189453	610.043945
2542.366211	651.012573
2541.543945	660.369202
2540.720703	691.835693
2539.897461	650.645508
2539.074219	707.364990
2538.250977	653.558105
2537.426758	669.218689
2536.603516	672.248962
2535.779297	706.833069
2534.955078	687.770691
2534.130859	725.493103
2533.306641	577.131592
2532.482422	649.545044
2531.657227	649.422852
2530.832031	706.035706
2530.007813	683.843384
2529.182617	636.453308
2528.356445	677.285706
2527.531250	639.363342
2526.706055	645.541016
2525.879883	670.606628
2525.053711	698.810547
2524.227539	717.562195
2523.401367	635.615234
2522.575195	607.181458
2521.748047	629.085083
2520.921875	720.166809
2520.094727	660.290649
2519.267578	647.591675
2518.440430	685.186401
2517.613281	653.632751
2516.785156	735.198303
2515.958008	621.973694
2515.129883	646.982056
2514.301758	766.183899
2513.473633	709.528442
2512.645508	659.172119
2511.817383	702.984436
2510.988281	749.917969
2510.159180	708.993774
2509.331055	730.816040
2508.501953	718.134460
2507.671875	714.863708
2506.842773	623.820496
2506.013672	655.044739
2505.183594	723.860291
2504.353516	726.856873
2503.523438	736.117065
2502.693359	701.528198
2501.863281	676.346069
2501.033203	663.695923
2500.202148	701.131348
2499.371094	729.164307
2498.540039	691.480286
2497.708984	760.171997
2496.877930	750.645569
2496.046875	687.961914
2495.214844	731.603271
2494.382813	712.709717
2493.550781	756.329834
2492.718750	718.690247
2491.886719	712.306335
2491.054688	709.048340
2490.221680	768.250916
2489.389648	696.291138
2488.556641	736.742981
2487.723633	667.937439
2486.890625	699.017517
2486.056641	764.406006
2485.223633	729.947876
2484.389648	760.998535
2483.555664	667.307068
2482.721680	835.535156
2481.887695	754.333313
2481.053711	682.511536
2480.218750	722.889343
2479.384766	750.790588
2478.549805	763.107666
2477.714844	728.707947
2476.879883	678.753479
2476.044922	821.821411
2475.208984	778.092896
2474.374023	756.163391
2473.538086	693.796570
2472.702148	811.868469
2471.866211	796.164917
2471.030273	805.342712
2470.193359	861.149658
2469.357422	736.656616
2468.520508	783.132385
2467.683594	730.163940
2466.846680	748.664795
2466.009766	748.523254
2465.172852	801.172058
2464.334961	822.753662
2463.497070	782.244202
2462.660156	741.750000
2461.822266	741.609680
2460.983398	815.926514
2460.145508	738.227295
2459.306641	793.909363
2458.468750	765.853516
2457.629883	821.509216
2456.791016	709.773621
2455.952148	759.221069
2455.113281	848.927368
2454.273438	830.180542
2453.433594	743.304504
2452.594727	749.356873
2451.754883	838.996948
2450.915039	814.075317
2450.074219	755.120789
2449.234375	773.542847
2448.393555	825.987305
2447.552734	736.133911
2446.711914	834.951721
2445.871094	782.232483
2445.030273	800.631775
2444.189453	809.752075
2443.347656	753.977356
2442.505859	871.234985
2441.664063	849.447632
2440.822266	784.432068
2439.980469	846.037964
2439.138672	784.134766
2438.295898	790.159241
2437.453125	808.525330
2436.610352	891.677612
2435.767578	786.625244
2434.924805	841.992065
2434.082031	743.156128
2433.238281	813.925354
2432.394531	816.853516
2431.550781	742.733459
2430.707031	813.462402
2429.863281	837.953857
2429.019531	847.035339
2428.174805	831.476929
2427.331055	791.292725
2426.486328	797.299377
2425.641602	858.703918
2424.795898	846.232178
2423.951172	907.604126
2423.106445	852.063171
2422.260742	885.731506
2421.415039	741.044373
2420.569336	833.132446
2419.723633	783.794983
2418.876953	851.254883
2418.031250	854.165833
2417.184570	823.284119
2416.337891	912.197632
2415.491211	865.962585
2414.644531	865.798157
2413.797852	804.241333
2412.950195	807.157593
2412.103516	862.236572
2411.255859	874.344299
2410.408203	818.966980
2409.560547	910.812683
2408.711914	864.647766
2407.864258	873.680115
2407.015625	815.279846
2406.166992	910.120728
2405.318359	870.118408
2404.469727	866.889832
2403.621094	866.725098
2402.771484	884.932678
2401.922852	900.071777
2401.073242	841.743835
2400.223633	890.548706
2399.374023	924.036377
2398.524414	917.742432
2397.673828	838.045349
2396.823242	938.799316
2395.973633	886.645020
2395.123047	886.476440
2394.272461	919.926392
2393.420898	922.807068
2392.570313	846.254761
2391.718750	861.366211
2390.867188	922.280579
2390.015625	946.531738
2389.164063	912.771423
2388.312500	912.597717
2387.460938	936.836731
2386.608398	927.505493
2385.755859	948.681946
2384.903320	869.205444
2384.050781	911.729675
2383.198242	896.312683
2382.344727	963.200317
2381.492188	950.826843
2380.638672	880.566162
2379.785156	941.325745
2378.931641	907.642883
2378.077148	937.922058
2377.223633	965.145020
2376.369141	916.256592
2375.515625	903.908203
2374.661133	940.250610
2373.805664	930.944580
2372.951172	885.141418
2372.096680	900.178467
2371.241211	988.183289
2370.385742	887.675537
2369.530273	963.491516
2368.674805	896.453735
2367.819336	920.588867
2366.962891	929.526367
2366.107422	892.904114
2365.250977	941.318115
2364.394531	965.426086
2363.538086	953.100647
2362.681641	934.710266
2361.824219	970.942383
2360.967773	943.454712
2360.110352	912.944397
2359.252930	955.224731
2358.395508	1033.871460
2357.537109	1057.924683
2356.679688	960.739685
2355.821289	909.043884
2354.962891	990.668823
2354.104492	1017.740723
2353.246094	1035.717041
2352.387695	932.572998
2351.529297	953.585815
2350.669922	944.323792
2349.810547	1001.639526
2348.951172	956.065491
2348.091797	901.433960
2347.232422	949.651794
2346.372070	973.660828
2345.511719	985.567749
2344.652344	1066.990723
2343.791992	1006.345825
2342.931641	948.745483
2342.070313	981.794312
2341.209961	1038.993042
2340.348633	1096.169800
2339.487305	1023.500305
2338.625977	959.914185
2337.764648	1053.289429
2336.903320	953.512573
2336.041016	1025.735229
2335.179688	1022.522949
2334.317383	1013.280396
2333.455078	991.980774
2332.591797	1024.951416
2331.729492	997.629639
2330.867188	1030.586426
2330.003906	1075.581909
2329.140625	1087.425415
2328.277344	1135.404419
2327.414063	1080.987427
2326.549805	1023.580627
2325.686523	1059.504395
2324.822266	993.095398
2323.958008	1092.196045
2323.093750	1040.847168
2322.229492	1085.762939
2321.365234	1022.406616
2320.500000	1064.302002
2319.635742	985.944336
2318.770508	1066.900269
2317.905273	1051.672241
2317.039063	1096.533936
2316.173828	1084.309692
2315.307617	1051.068604
2314.442383	1092.902100
2313.576172	1104.700562
2312.709961	1080.478394
2311.842773	972.244446
2310.976563	1023.061340
2310.109375	1166.846558
2309.243164	1112.640625
2308.375977	1013.478455
2307.508789	1031.271606
2306.640625	1085.025757
2305.773438	1078.824463
2304.905273	1054.648560
2304.038086	1138.322876
2303.169922	1111.149780
2302.301758	1095.964722
2301.432617	1104.736328
2300.564453	1092.551514
2299.695313	1026.502319
2298.826172	1077.172119
2297.957031	1053.033081
2297.087891	1082.741211
2296.218750	1079.543335
2295.348633	1115.214600
2294.479492	1129.947266
2293.609375	1147.662842
2292.739258	1120.549561
2291.869141	1123.322266
2290.999023	1126.093872
2290.127930	1119.905151
2289.256836	1119.690430
2288.385742	1200.077881
2287.514648	1074.490479
2286.643555	1175.744629
2285.772461	1175.519043
2284.900391	1106.685059
2284.029297	1136.296753
2283.157227	1097.314941
2282.285156	1150.767090
2281.413086	1186.314575
2280.540039	1183.106812
2279.667969	1132.227417
2278.794922	1176.694702
2277.921875	1179.447266
2277.048828	1140.509033
2276.175781	1152.199219
2275.301758	1157.931396
2274.428711	1127.947876
2273.554688	1199.144409
2272.680664	1207.838989
2271.806641	1243.299927
2270.932617	1228.192017
2270.057617	1233.902588
2269.183594	1120.703491
2268.308594	1141.292969
2267.433594	1218.333984
2266.558594	1200.274048
2265.682617	1277.273926
2264.807617	1279.998291
2263.931641	1279.752441
2263.055664	1246.850830
2262.179688	1380.176758
2261.303711	1344.300781
2260.427734	1323.273560
2259.550781	1385.313843
2258.674805	1417.671753
2257.797852	1491.531006
2256.920898	1600.938110
2256.043945	1630.271606
2255.166016	1787.026855
2254.289063	1834.091064
2253.411133	1892.986694
2252.533203	2168.074707
2251.655273	2250.573730
2250.777344	2421.862061
2249.898438	2782.533447
2249.020508	2820.472412
2248.141602	3240.108398
2247.262695	3408.115723
2246.383789	3732.824951
2245.504883	3980.519287
2244.625000	4142.373047
2243.745117	4203.655273
2242.866211	4214.668457
2241.986328	4128.161621
2241.106445	4301.679688
2240.225586	3804.599365
2239.345703	3656.201172
2238.464844	3177.152832
2237.583984	2786.853760
2236.703125	2623.978760
2235.822266	2319.516357
2234.941406	2059.428223
2234.059570	1870.237915
2233.177734	1722.410889
2232.296875	1730.925415
2231.414063	1559.596558
2230.532227	1515.081665
2229.650391	1444.060181
2228.767578	1505.658325
2227.884766	1302.099243
2227.002930	1369.591553
2226.119141	1351.658936
2225.236328	1295.458130
2224.353516	1248.109985
2223.469727	1418.568481
2222.585938	1297.651611
2221.702148	1379.776123
2220.818359	1332.447876
2219.934570	1291.019531
2219.049805	1281.949829
2218.166016	1340.496338
2217.281250	1307.907471
2216.396484	1263.576904
2215.511719	1304.464966
2214.625977	1315.963013
2213.741211	1309.835449
2212.855469	1294.901245
2211.969727	1277.037109
2211.083984	1379.520996
2210.198242	1276.544312
2209.311523	1299.770142
2208.425781	1317.119995
2207.539063	1378.456421
2206.652344	1372.325684
2205.765625	1377.924316
2204.878906	1336.621582
2203.991211	1271.889893
2203.103516	1347.825806
2202.216797	1268.469238
2201.329102	1376.594482
2200.440430	1402.683960
2199.552734	1434.618774
2198.665039	1387.505981
2197.776367	1404.797974
2196.887695	1337.226318
2195.999023	1369.148926
2195.110352	1436.158569
2194.220703	1339.375854
2193.332031	1438.527466
2192.442383	1365.167725
2191.552734	1437.971558
2190.663086	1367.562256
2189.773438	1361.454712
2188.882813	1428.374878
2187.992188	1349.246704
2187.102539	1421.982910
2186.211914	1474.255737
2185.320313	1421.433105
2184.429688	1400.730957
2183.539063	1450.059692
2182.647461	1362.267456
2181.755859	1484.496826
2180.864258	1364.656372
2179.972656	1387.715454
2179.080078	1375.787720
2178.188477	1422.149414
2177.295898	1343.204956
2176.403320	1377.902466
2175.510742	1395.111206
2174.618164	1455.992920
2173.724609	1513.939575
2172.832031	1408.855591
2171.938477	1359.107910
2171.044922	1390.851929
2170.151367	1364.400146
2169.256836	1378.678955
2168.363281	1317.343140
2167.468750	1430.479858
2166.574219	1392.412964
2165.679688	1403.768677
2164.785156	1406.402588
2163.889648	1507.813232
2162.995117	1475.569824
2162.099609	1452.051147
2161.204102	1448.866333
2160.308594	1483.421387
2159.413086	1462.817139
2158.516602	1416.104004
2157.620117	1479.657959
2156.724609	1441.661865
2155.828125	1394.979736
2154.930664	1444.002686
2154.034180	1397.338135
2153.136719	1391.270264
2152.240234	1425.775635
2151.342773	1460.267456
2150.445313	1454.190796
2149.546875	1453.908813
2148.649414	1430.461426
2147.750977	1441.764526
2146.853516	1479.114014
2145.955078	1458.569214
2145.055664	1414.885010
2144.157227	1420.396240
2143.258789	1547.381958
2142.359375	1515.272705
2141.459961	1390.657837
2140.560547	1552.262817
2139.661133	1549.071533
2138.760742	1473.643921
2137.861328	1470.468994
2136.960938	1510.620850
2136.060547	1464.122559
2135.160156	1489.823730
2134.259766	1475.100952
2133.358398	1506.562134
2132.458008	1497.612915
2131.556641	1482.896973
2130.655273	1548.951416
2129.753906	1537.115112
2128.851563	1438.783203
2127.950195	1548.049194
2127.047852	1521.808594
2126.145508	1547.447876
2125.243164	1552.909424
2124.340820	1541.085571
2123.437500	1497.586548
2122.534180	1540.486694
2121.631836	1517.156616
2120.728516	1577.305908
2119.825195	1484.911865
2118.920898	1591.078735
2118.017578	1636.795410
2117.113281	1469.665771
2116.208984	1524.014526
2115.304688	1575.467163
2114.400391	1534.919556
2113.495117	1523.125732
2112.590820	1491.223755
2111.685547	1548.387817
2110.780273	1545.214478
2109.875000	1619.575195
2108.968750	1599.162964
2108.063477	1659.131836
2107.157227	1635.849731
2106.250977	1546.581543
2105.344727	1603.656494
2104.438477	1614.817383
2103.532227	1548.546509
2102.625000	1522.441040
2101.717773	1522.144775
2100.810547	1659.416748
2099.903320	1564.533936
2098.996094	1604.337891
2098.087891	1555.331909
2097.180664	1626.623413
2096.272461	1634.896362
2095.364258	1603.088745
2094.455078	1651.432251
2093.546875	1608.187500
2092.638672	1579.264404
2091.729492	1601.840210
2090.820313	1601.528198
2089.911133	1724.166748
2089.000977	1686.666992
2088.091797	1594.875977
2087.181641	1574.561646
2086.271484	1685.681274
2085.361328	1673.926636
2084.451172	1647.896606
2083.541016	1490.527466
2082.629883	1667.238281
2081.718750	1712.582153
2080.807617	1726.517090
2079.896484	1569.255005
2078.985352	1671.643799
2078.073242	1685.578247
2077.162109	1599.703857
2076.250000	1662.113159
2075.337891	1613.332031
2074.425781	1664.314819
2073.512695	1658.291504
2072.600586	1686.455444
2071.687500	1640.555420
2070.774414	1813.940918
2069.861328	1694.009766
2068.947266	1599.744141
2068.034180	1693.348755
2067.120117	1647.491699
2066.206055	1741.050415
2065.291992	1737.866211
2064.377930	1692.027100
2063.463867	1674.637695
2062.548828	1566.290649
2061.633789	1688.194214
2060.718750	1696.389160
2059.803711	1633.556641
2058.888672	1752.535034
2057.972656	1740.833252
2057.057617	1712.100220
2056.141602	1666.345825
2055.225586	1711.431396
2054.308594	1637.318481
2053.392578	1756.156250
2052.475586	1659.370972
2051.559570	1763.977905
2050.642578	1735.279053
2049.725586	1729.270142
2048.807617	1785.618530
2047.890625	1720.093018
2046.972656	1643.260132
2046.054688	1702.424683
2045.136719	1784.222778
2044.218750	1772.547729
2043.299805	1842.975952
2042.381836	1771.854614
2041.462891	1836.595459
2040.543945	1649.500488
2039.625000	1717.068481
2038.705078	1742.186646
2037.786133	1744.673584
2036.866211	1786.739136
2035.946289	1701.592529
2035.026367	1754.953857
2034.106445	1805.468750
2033.185547	1805.115479
2032.265625	1773.694336
2031.344727	1716.871216
2030.423828	1778.646606
2029.501953	1829.107056
2028.581055	1741.262573
2027.659180	1794.531860
2026.738281	1782.896362
2025.816406	1759.983398
2024.894531	1818.857422
2023.971680	1835.417603
2023.049805	1795.594482
2022.126953	1693.784912
2021.204102	1758.260864
2020.281250	1859.334717
2019.358398	1816.721069
2018.434570	1881.134888
2017.511719	1796.300781
2016.587891	1821.283447
2015.664063	1767.452759
2014.740234	1803.686646
2013.816406	1842.719482
2012.891602	1895.800781
2011.966797	1816.687378
2011.041992	1875.376099
2010.117188	1785.052979
2009.192383	1973.010254
2008.266602	1860.223267
2007.341797	1854.239624
2006.416016	1842.640381
2005.490234	1718.711548
2004.564453	1853.149048
2003.637695	1791.026001
2002.711914	1723.313965
2001.785156	1874.507935
2000.858398	1860.112183
1999.931641	1899.017944
1999.004883	1853.773438
1998.077148	1870.233398
1997.149414	1869.866333
1996.221680	1866.696533
1995.293945	1911.166992
1994.366211	1947.214600
1993.438477	1871.200073
1992.509766	1887.636597
1991.581055	1898.466431
1990.652344	1926.089111
1989.723633	1934.108032
1988.794922	1947.720459
1987.865234	1924.954712
1986.935547	1874.224487
1986.005859	1885.043579
1985.076172	1845.525757
1984.146484	1906.668701
1983.215820	1903.499023
1982.286133	1903.125000
1981.355469	1821.723511
1980.424805	1969.421387
1979.493164	1988.585083
1978.562500	1910.006836
1977.630859	1828.667603
1976.700195	1898.090942
1975.768555	1883.764038
1974.835938	1838.750366
1973.904297	1930.447754
1972.971680	1944.013794
1972.040039	1904.591675
1971.107422	1884.701050
1970.174805	1942.867310
1969.241211	1978.715210
1968.308594	1922.598511
1967.375000	1922.220337
1966.441406	1927.412842
1965.507813	1993.867188
1964.574219	2015.748413
1963.639648	1915.140991
1962.706055	1975.992065
1961.771484	2011.776245
1960.836914	1877.844727
1959.902344	1910.852539
1958.966797	2041.178589
1958.032227	1999.071533
1957.096680	2007.017456
1956.161133	1928.803223
1955.225586	1908.972534
1954.290039	1925.265625
1953.353516	2013.770142
1952.416992	2007.819458
1951.480469	1890.810303
1950.543945	2026.460571
1949.607422	2017.735107
1948.670898	2022.887451
1947.733398	1955.904907
1946.795898	2033.185669
1945.858398	2063.290771
1944.920898	2118.338135
1943.982422	2007.034790
1943.044922	2034.355225
1942.106445	2009.014771
1941.167969	2080.652100
1940.229492	2060.852295
1939.291016	2088.140137
1938.351563	2037.888794
1937.412109	2098.390137
1936.472656	2045.388672
1935.533203	2075.425049
1934.593750	2102.682617
1933.653320	2033.114380
1932.713867	2079.728516
1931.773438	2098.673584
1930.833008	2059.556641
1929.892578	2056.386475
1928.951172	2050.453857
1928.009766	2077.677979
1927.069336	2126.989990
1926.127930	2159.711670
1925.185547	2162.046631
1924.244141	2092.602783
1923.301758	2150.152588
1922.360352	2014.507935
1921.417969	2146.544922
1920.475586	2154.396729
1919.532227	2040.894775
1918.589844	2172.847900
1917.646484	2109.010742
1916.703125	2207.822266
1915.759766	2182.584229
1914.816406	2060.922363
1913.872070	2112.854736
1912.927734	2134.470459
1911.984375	2103.759277
1911.039063	2180.429443
1910.094727	2152.473389
1909.150391	2198.831787
1908.205078	2151.622803
1907.259766	2087.927246
1906.314453	2153.522949
1905.369141	2260.339600
1904.423828	2191.161377
1903.477539	2034.051270
1902.531250	2135.331543
1901.584961	2134.909424
1900.638672	2032.845093
1899.692383	2158.784180
1898.745117	2086.961182
1897.797852	2218.330566
1896.851563	2215.146973
1895.903320	2154.332520
1894.956055	2090.798340
1894.008789	2046.492188
1893.060547	2043.344604
1892.112305	2149.886230
1891.164063	2143.977539
1890.215820	2272.385742
1889.266602	2123.945068
1888.317383	2087.904297
1887.369141	2166.936279
1886.419922	2141.856689
1885.469727	2201.677734
1884.520508	2149.222412
1883.570313	2085.838623
1882.620117	2189.423096
1881.669922	2145.209717
1880.719727	2210.441650
1879.769531	2220.944580
1878.818359	2258.789307
1877.867188	2239.203369
1876.916016	2178.622070
1875.964844	2219.185303
1875.013672	2172.294189
1874.061523	2193.718994
1873.110352	2103.149414
1872.158203	2239.273682
1871.205078	2318.008057
1870.252930	2276.602539
1869.300781	2259.776123
1868.347656	2267.514160
1867.394531	2204.318115
1866.441406	2345.714844
1865.488281	2252.530762
1864.534180	2292.981445
1863.580078	2276.171143
1862.626953	2213.035156
1861.671875	2242.569824
1860.717773	2255.746826
1859.763672	2154.519043
1858.808594	2243.958984
1857.853516	2360.590332
1856.898438	2256.679688
1855.943359	2201.799316
1854.987305	2288.437256
1854.032227	2266.218750
1853.076172	2241.288818
1852.120117	2276.197266
1851.164063	2332.843018
1850.207031	2278.012207
1849.250977	2342.788330
1848.293945	2198.305664
1847.336914	2301.106689
1846.379883	2295.217285
1845.421875	2313.771240
1844.464844	2250.863281
1843.506836	2312.852295
1842.548828	2293.394531
1841.590820	2352.636719
1840.632813	2292.483398
1839.673828	2313.727783
1838.714844	2318.691895
1837.755859	2234.178467
1836.796875	2336.746338
1835.837891	2357.964600
1834.877930	2316.849365
1833.918945	2319.098145
1832.958984	2405.315186
1831.999023	2404.837158
1831.038086	2309.592773
1830.078125	2271.234375
1829.117188	2379.044189
1828.156250	2438.103271
1827.195313	2332.105469
1826.234375	2364.100830
1825.273438	2352.812988
1824.311523	2349.641113
1823.349609	2370.800293
1822.387695	2364.923096
1821.425781	2415.795166
1820.462891	2366.683838
1819.500977	2360.810791
1818.538086	2357.640381
1817.575195	2451.674072
1816.611328	2375.598877
1815.648438	2431.805176
1814.684570	2369.256348
1813.721680	2401.159912
1812.757813	2422.260986
1811.792969	2570.105957
1810.829102	2329.621582
1809.864258	2445.076416
1808.899414	2347.560547
1807.934570	2387.513916
1806.969727	2378.955811
1806.004883	2362.320068
1805.039063	2485.732178
1804.073242	2409.845215
1803.107422	2385.136719
1802.141602	2422.342529
1801.175781	2333.058350
1800.208984	2502.089844
1799.242188	2458.552979
1798.276367	2519.917969
1797.308594	2444.129150
1796.341797	2395.252930
1795.374023	2405.526367
1794.407227	2450.729248
1793.439453	2380.387207
1792.470703	2401.401611
1791.502930	2460.006104
1790.535156	2389.703857
1789.566406	2510.030762
1788.597656	2509.530273
1787.628906	2455.360596
1786.659180	2524.626709
1785.690430	2489.251953
1784.720703	2435.118408
1783.750977	2381.006348
1782.781250	2396.615967
1781.811523	2463.143555
1780.840820	2355.463867
1779.870117	2521.102295
1778.899414	2512.563232
1777.928711	2388.868896
1776.958008	2455.331299
1775.986328	2478.934326
1775.015625	2454.350830
1774.043945	2555.547607
1773.072266	2496.177734
1772.099609	2514.403564
1771.127930	2481.809082
1770.155273	2513.399170
1769.182617	2512.897217
1768.209961	2531.104492
1767.237305	2541.287598
1766.263672	2404.523682
1765.290039	2556.299316
1764.316406	2515.729004
1763.342773	2589.988770
1762.369141	2546.758301
1761.395508	2580.946533
1760.420898	2428.326660
1759.446289	2507.879883
1758.471680	2515.380859
1757.496094	2493.542969
1756.521484	2514.375244
1755.545898	2548.528076
1754.570313	2603.989502
1753.594727	2598.139160
1752.619141	2594.955322
1751.642578	2637.055420
1750.666992	2553.969971
1749.690430	2566.772217
1748.713867	2632.810791
1747.736328	2672.207520
1746.759766	2557.248535
1745.782227	2527.471436
1744.804688	2574.844971
1743.827148	2733.895508
1742.849609	2674.852539
1741.871094	2650.391602
1740.892578	2570.125977
1739.915039	2686.532715
1738.935547	2539.872559
1737.957031	2674.832031
1736.978516	2618.526611
1735.999023	2636.588379
1735.019531	2644.024414
1734.040039	2693.922852
1733.060547	2552.743408
1732.080078	2634.476563
1731.099609	2604.770996
1730.119141	2569.773438
1729.138672	2656.756348
1728.158203	2685.384277
1727.176758	2700.748291
1726.196289	2599.512451
1725.214844	2665.224609
1724.233398	2617.011963
1723.250977	2754.197266
1722.269531	2719.224609
1721.287109	2641.910400
1720.304688	2614.913818
1719.322266	2609.097168
1718.339844	2714.398438
1717.356445	2623.921387
1716.373047	2607.527832
1715.389648	2665.173096
1714.406250	2680.499512
1713.422852	2616.530762
1712.438477	2658.284668
1711.454102	2581.135986
1710.469727	2696.838379
1709.485352	2624.994629
1708.500977	2656.151367
1707.515625	2732.171875
1706.531250	2707.870361
1705.545898	2625.526367
1704.559570	2748.994141
1703.574219	2737.891602
1702.587891	2689.873535
1701.602539	2694.606689
1700.616211	2720.426270
1699.629883	2727.786377
1698.642578	2619.203125
1697.656250	2695.076904
1696.668945	2633.954590
1695.681641	2651.859375
1694.694336	2846.161133
1693.706055	2682.382324
1692.718750	2621.311035
1691.730469	2791.819336
1690.742188	2709.704102
1689.752930	2711.789795
1688.764648	2692.836670
1687.775391	2797.463135
1686.787109	2641.809326
1685.797852	2720.122559
1684.807617	2656.512939
1683.818359	2758.434814
1682.828125	2794.651855
1681.837891	2723.187256
1680.847656	2688.508057
1679.857422	2834.965576
1678.867188	2829.146240
1677.875977	2760.355469
1676.884766	2817.514648
1675.893555	2764.490479
1674.902344	2769.178955
1673.910156	2786.974365
1672.917969	2820.489990
1671.926758	2696.747314
1670.933594	2897.961182
1669.941406	2810.928223
1668.949219	2705.595703
1667.956055	2859.550537
1666.962891	2872.065430
1665.969727	2798.194824
1664.976563	2920.632813
1663.982422	2922.661133
1662.988281	2869.752441
1661.994141	2816.864990
1661.000000	2855.521729
1660.005859	2862.789795
1659.010742	2802.093506
1658.016602	2887.770020
1657.021484	2840.156982
1656.025391	2920.566406
1655.030273	2943.483887
1654.034180	2976.837158
1653.039063	2882.250732
1652.042969	2863.398193
1651.045898	2907.185547
1650.049805	2830.933838
1649.052734	2919.056641
1648.056641	2863.697754
1647.059570	2938.739990
1646.061523	2815.615967
1645.064453	2908.883057
1644.066406	2955.204346
1643.068359	2918.131592
1642.070313	2888.888428
1641.072266	2833.612793
1640.074219	3007.502197
1639.075195	2926.190674
1638.076172	2993.274414
1637.077148	3060.330566
1636.078125	3038.898682
1635.078125	2949.842041
1634.079102	2944.045166
1633.079102	2987.654541
1632.079102	2997.450195
1631.078125	2991.646484
1630.078125	2980.647949
1629.077148	2928.083496
1628.076172	3091.140869
1627.075195	2994.424805
1626.073242	2996.416748
1625.072266	2925.718750
1624.070313	2878.408691
1623.068359	3082.830322
1622.066406	2866.867920
1621.064453	3011.548584
1620.061523	3049.841064
1619.058594	3025.888916
1618.055664	2957.875977
1617.052734	2998.747559
1616.048828	3008.506592
1615.045898	3075.258789
1614.041992	3017.651367
1613.038086	3042.938477
1612.034180	3047.501709
1611.029297	3015.821289
1610.024414	2999.682373
1609.020508	2975.786865
1608.014648	2977.771973
1607.009766	3140.125244
1606.004883	3015.358643
1604.999023	3110.413818
1603.993164	3068.424072
1602.987305	2946.331543
1601.980469	3074.934326
1600.974609	3063.978271
1599.967773	3127.931396
1598.960938	3080.814941
1597.954102	3152.484131
1596.947266	3128.613770
1595.939453	3135.722900
1594.931641	2959.626221
1593.923828	3093.176514
1592.916016	3095.129395
1591.908203	3006.824951
1590.899414	3106.766846
1589.890625	3116.448486
1588.881836	3115.817139
1587.873047	2999.236328
1586.863281	3166.077881
1585.854492	2992.869873
1584.844727	3159.644775
1583.833984	3187.324707
1582.824219	3073.420410
1581.814453	3129.415283
1580.803711	3162.230225
1579.792969	3020.102295
1578.782227	3063.213379
1577.770508	3083.164063
1576.759766	3100.535400
1575.748047	3248.989990
1574.736328	3081.288818
1573.724609	3075.525391
1572.711914	3092.883301
1571.700195	3187.283936
1570.687500	3155.823730
1569.674805	3178.289063
1568.662109	3200.745117
1567.648438	3082.048828
1566.634766	3181.486328
1565.622070	3101.319824
1564.607422	3154.548584
1563.593750	3235.961182
1562.580078	3158.395264
1561.565430	3224.395264
1560.550781	3139.175049
1559.536133	3100.106689
1558.520508	3117.408203
1557.505859	3150.068604
1556.490234	3328.664551
1555.474609	3202.549072
1554.458984	3271.004395
1553.442383	3231.955566
1552.426758	3077.793213
1551.410156	3095.073486
1550.393555	3137.920166
1549.376953	3193.533936
1548.359375	3105.968994
1547.341797	3141.119629
1546.324219	3132.815186
1545.306641	3119.404541
1544.289063	3190.290283
1543.270508	3107.921387
1542.252930	3171.120605
1541.234375	3116.868896
1540.215820	3297.441162
1539.196289	3232.978760
1538.177734	3143.030518
1537.158203	3193.404297
1536.138672	3111.150879
1535.119141	3189.555664
1534.098633	3219.496094
1533.078125	3068.475586
1532.058594	3177.417480
1531.037109	3064.679443
1530.016602	3171.030518
1528.996094	3157.652588
1527.974609	3131.550293
1526.953125	3204.731201
1525.931641	3163.359863
1524.909180	3198.337891
1523.887695	3073.035400
1522.865234	3174.145264
1521.842773	3120.098633
1520.820313	3086.412842
1519.796875	3212.875977
1518.774414	3219.845459
1517.750977	3087.068359
1516.727539	3142.325684
1515.704102	3189.940918
1514.679688	3133.427734
1513.655273	3214.028564
1512.630859	3185.453369
1511.606445	3222.869629
1510.582031	3212.064209
1509.556641	3127.699951
1508.532227	3253.869385
1507.506836	3265.884277
1506.480469	3158.744141
1505.455078	3196.118896
1504.428711	3210.671875
1503.402344	3288.557373
1502.375977	3232.159912
1501.349609	3125.134766
1500.323242	3197.925537
1499.295898	3217.525391
1498.268555	3199.152100
1497.241211	3289.596191
1496.212891	3167.487793
1495.185547	3230.077148
1494.157227	3171.253174
1493.128906	3297.025635
1492.100586	3187.654053
1491.071289	3181.948730
1490.042969	3166.138184
1489.013672	3231.176514
1487.984375	3190.104004
1486.955078	3053.086426
1485.924805	3231.722656
1484.894531	3152.810547
1483.864258	3273.306885
1482.833984	3219.650391
1481.803711	3251.788330
1480.772461	3233.468506
1479.741211	3263.068359
1478.709961	3239.711182
1477.678711	3307.107178
1476.647461	3185.464355
1475.615234	3167.176270
1474.583008	3269.812744
1473.550781	3296.849121
1472.518555	3293.657227
1471.485352	3179.693115
1470.453125	3345.168945
1469.419922	3384.749756
1468.385742	3444.442383
1467.352539	3353.179688
1466.318359	3397.764160
1465.285156	3349.293945
1464.250977	3547.212646
1463.215820	3501.245117
1462.181641	3570.891357
1461.146484	3625.434326
1460.111328	3592.037598
1459.076172	3681.713135
1458.041016	3801.482422
1457.004883	3818.277100
1455.968750	3955.538086
1454.932617	3756.490234
1453.896484	3715.580078
1452.860352	3817.660400
1451.823242	3729.105713
1450.786133	3738.371582
1449.749023	3750.140137
1448.711914	3679.196777
1447.673828	3663.408936
1446.636719	3595.017090
1445.598633	3476.558838
1444.560547	3596.048828
1443.521484	3510.186523
1442.483398	3526.989746
1441.444336	3518.759277
1440.405273	3508.029541
1439.365234	3422.254639
1438.326172	3344.018311
1437.286133	3360.837402
1436.246094	3357.648438
1435.206055	3371.957764
1434.166016	3221.321533
1433.125000	3243.148193
1432.083984	3344.903809
1431.042969	3284.276855
1430.001953	3261.130127
1428.960938	3228.006592
1427.918945	3217.360352
1426.876953	3351.457520
1425.834961	3335.800293
1424.792969	3257.787109
1423.750000	3259.612793
1422.708008	3246.476807
1421.665039	3410.344727
1420.621094	3481.925537
1419.578125	3139.818115
1418.534180	3211.424561
1417.491211	3228.201660
1416.446289	3177.731201
1415.402344	3279.163818
1414.358398	3303.384277
1413.313477	3312.661377
1412.268555	3195.029297
1411.223633	3199.348877
1410.177734	3303.159180
1409.132813	3419.360840
1408.086914	3324.179199
1407.041016	3410.498779
1405.995117	3265.652100
1404.948242	3299.768066
1403.901367	3338.838135
1402.854492	3298.412109
1401.807617	3384.647461
1400.760742	3364.090088
1399.712891	3306.307861
1398.666016	3283.292969
1397.618164	3458.782715
1396.569336	3346.440918
1395.521484	3226.704590
1394.472656	3369.861572
1393.423828	3329.502197
1392.375000	3373.433105
1391.326172	3395.042725
1390.276367	3396.822021
1389.226563	3373.829346
1388.176758	3385.518311
1387.126953	3320.443359
1386.077148	3334.613770
1385.026367	3351.253174
1383.975586	3343.139893
1382.924805	3508.213623
1381.874023	3425.864502
1380.822266	3551.284424
1379.770508	3429.399414
1378.718750	3480.605957
1377.666992	3455.174316
1376.614258	3360.564697
1375.562500	3404.341553
1374.509766	3423.400635
1373.457031	3417.756592
1372.403320	3407.176758
1371.350586	3539.771729
1370.296875	3499.555420
1369.243164	3575.325195
1368.189453	3421.638672
1367.134766	3529.456543
1366.081055	3558.320313
1365.026367	3394.869873
1363.971680	3588.897461
1362.916016	3600.479736
1361.861328	3479.007324
1360.805664	3488.143555
1359.750000	3460.333008
1358.694336	3513.791504
1357.637695	3468.753662
1356.582031	3522.187988
1355.525391	3472.244873
1354.468750	3594.545410
1353.411133	3618.402100
1352.354492	3593.062744
1351.296875	3511.180664
1350.239258	3476.040039
1349.181641	3694.066650
1348.123047	3423.002686
1347.064453	3569.703369
1346.005859	3544.403809
1344.947266	3489.645508
1343.888672	3535.575195
1342.829102	3647.763916
1341.770508	3612.651611
1340.709961	3548.108398
1339.650391	3613.613037
1338.590820	3637.394287
1337.530273	3585.146484
1336.469727	3675.119385
1335.409180	3617.982666
1334.348633	3661.347900
1333.287109	3633.639404
1332.225586	3701.480225
1331.164063	3725.207275
1330.102539	3650.977295
1329.040039	3547.399658
1327.978516	3766.956299
1326.916016	3670.738525
1325.852539	3679.766602
1324.790039	3793.974854
1323.726563	3636.669434
1322.664063	3660.368896
1321.599609	3930.966064
1320.536133	3783.505859
1319.472656	3592.121094
1318.408203	3813.701660
1317.343750	3651.700684
1316.279297	3841.429443
1315.213867	3750.295654
1314.149414	3729.991211
1313.083984	3721.897705
1312.018555	3735.768066
1310.952148	3530.070557
1309.886719	3619.585693
1308.820313	3745.642090
1307.753906	3739.990723
1306.687500	3670.964844
1305.620117	3677.516113
1304.552734	3598.785156
1303.486328	3668.685547
1302.417969	3777.525146
1301.350586	3540.544434
1300.282227	3578.763672
1299.214844	3726.498291
1298.146484	3596.749512
1297.077148	3486.518555
1296.008789	3478.498779
1294.939453	3562.898682
1293.870117	3503.804199
1292.800781	3478.768066
1291.730469	3533.948730
1290.661133	3579.386230
1289.590820	3561.637939
1288.520508	3519.606934
1287.450195	3523.734375
1286.378906	3527.859863
1285.307617	3519.845947
1284.236328	3446.306885
1283.165039	3576.621826
1282.093750	3444.877686
1281.021484	3434.461182
1279.949219	3443.448730
1278.876953	3479.101318
1277.803711	3432.324463
1276.731445	3438.882813
1275.658203	3602.929932
1274.584961	3481.060059
1273.511719	3458.540039
1272.437500	3336.750244
1271.363281	3488.576904
1270.289063	3439.444092
1269.214844	3545.207275
1268.140625	3438.016113
1267.065430	3401.018311
1265.990234	3504.304688
1264.915039	3382.680664
1263.839844	3401.317627
1262.763672	3419.946533
1261.688477	3511.060303
1260.612305	3416.110107
1259.535156	3504.770996
1258.458984	3472.648926
1257.381836	3556.431885
1256.304688	3517.070313
1255.227539	3383.601807
1254.150391	3433.569824
1253.072266	3539.002197
1251.994141	3574.445068
1250.916016	3433.840576
1249.837891	3440.359375
1248.758789	3526.418701
1247.679688	3590.752930
1246.600586	3358.703857
1245.521484	3435.090088
1244.442383	3405.474854
1243.362305	3517.937744
1242.282227	3546.094727
1241.202148	3571.833008
1240.121094	3583.121826
1239.041016	3450.052246
1237.959961	3569.604004
1236.878906	3460.640869
1235.797852	3467.134033
1234.715820	3658.723633
1233.633789	3590.667236
1232.551758	3597.128418
1231.469727	3593.977295
1230.387695	3626.855469
1229.304688	3421.981934
1228.221680	3529.309570
1227.138672	3581.383301
1226.054688	3616.635742
1224.971680	3503.111084
1223.887695	3519.173584
1222.803711	3520.838867
1221.719727	3640.000000
1220.634766	3622.459961
1219.549805	3487.479004
1218.464844	3575.418945
1217.379883	3483.629883
1216.294922	3528.416260
1215.208984	3527.680908
1214.123047	3562.861328
1213.037109	3564.512451
1211.950195	3503.934570
1210.864258	3479.274902
1209.777344	3483.334229
1208.690430	3566.324219
1207.603516	3457.967529
1206.515625	3548.100586
1205.427734	3568.874023
1204.339844	3505.991943
1203.251953	3548.270020
1202.163086	3514.084961
1201.075195	3596.946045
1199.986328	3546.049316
1198.897461	3571.570801
1197.807617	3506.378662
1196.718750	3555.761475
1195.628906	3504.915039
1194.539063	3504.183350
1193.448242	3527.301025
1192.358398	3517.026855
1191.267578	3487.685303
1190.176758	3525.091797
1189.085938	3529.121338
1187.994141	3440.234375
1186.902344	3572.904053
1185.810547	3619.786377
1184.718750	3476.173828
1183.626953	3470.686523
1182.534180	3522.320313
1181.441406	3526.343018
1180.348633	3470.890137
1179.254883	3534.383057
1178.162109	3538.400146
1177.068359	3461.581787
1175.974609	3589.214111
1174.880859	3472.016846
1173.786133	3468.915039
1172.691406	3527.576416
1171.596680	3476.964355
1170.501953	3542.722412
1169.406250	3489.753906
1168.311523	3491.397461
1167.215820	3431.342285
1166.120117	3330.979736
1165.023438	3422.790771
1163.927734	3452.904053
1162.831055	3430.842285
1161.733398	3496.498535
1160.636719	3545.537109
1159.540039	3367.081299
1158.442383	3423.232910
1157.344727	3415.410645
1156.246094	3383.911133
1155.148438	3449.493652
1154.049805	3351.722656
1152.951172	3476.447510
1151.852539	3426.032471
1150.752930	3396.928223
1149.653320	3431.692383
1148.554688	3334.026611
1147.454102	3446.803223
1146.354492	3441.354004
1145.253906	3395.734375
1144.153320	3491.888428
1143.052734	3455.725342
1141.952148	3365.260742
1140.850586	3461.360107
1139.749023	3474.798096
1138.647461	3426.867676
1137.545898	3409.631836
1136.443359	3529.231689
1135.341797	3434.146973
1134.239258	3482.947266
1133.135742	3413.845703
1132.033203	3519.200684
1130.929688	3405.343750
1129.826172	3491.806641
1128.722656	3559.387939
1127.618164	3565.706543
1126.514648	3546.121094
1125.410156	3677.210205
1124.305664	3565.815918
1123.200195	3722.730469
1122.094727	3736.065186
1120.990234	3648.249756
1119.883789	3701.572998
1118.778320	3806.599854
1117.672852	3721.175049
1116.566406	3692.190918
1115.459961	3717.262451
1114.352539	3850.387939
1113.246094	3757.978516
1112.138672	3806.502197
1111.031250	3749.356445
1109.923828	3711.012695
1108.815430	3766.555176
1107.707031	3805.650391
1106.599609	3863.494873
1105.490234	3707.894287
1104.381836	3819.664795
1103.272461	3722.745605
1102.163086	3829.778076
1101.053711	3725.867188
1099.944336	3788.339844
1098.833984	3782.858643
1097.723633	3714.149902
1096.613281	3952.185791
1095.502930	3794.517578
1094.391602	3782.017578
1093.280273	3820.999756
1092.168945	3899.734619
1091.057617	3756.242188
1089.945313	3816.250000
1088.833008	3696.214111
1087.720703	3966.575195
1086.608398	3874.600830
1085.496094	3822.384033
1084.382813	3854.282471
1083.269531	3776.401611
1082.156250	3780.276367
1081.041992	3891.534180
1079.927734	3739.007080
1078.813477	3922.563965
1077.699219	3917.071777
1076.584961	3839.274658
1075.469727	3976.053711
1074.354492	3674.451904
1073.239258	3734.284180
1072.124023	3745.149902
1071.007813	3746.690918
1069.891602	3797.151123
1068.775391	3824.299561
1067.659180	3707.065430
1066.541992	3736.549072
1065.424805	3770.675049
1064.307617	3725.665283
1063.190430	3743.492676
1062.072266	3572.897705
1060.954102	3865.171631
1059.835938	3678.346436
1058.717773	3663.622803
1057.598633	3553.615479
1056.480469	3685.313965
1055.361328	3652.012207
1054.241211	3688.404541
1053.122070	3678.337402
1052.001953	3638.092529
1050.881836	3502.695068
1049.761719	3597.104980
1048.640625	3594.025635
1047.520508	3709.253418
1046.399414	3622.658447
1045.277344	3561.605957
1044.156250	3692.995117
1043.034180	3701.486328
1041.912109	3510.687256
1040.790039	3611.884766
1039.667969	3703.774170
1038.544922	3672.886230
1037.421875	3595.704590
1036.298828	3483.832520
1035.175781	3598.813965
1034.051758	3642.016846
1032.927734	3560.279297
1031.803711	3566.465576
1030.679688	3598.085205
1029.554688	3620.443604
1028.429688	3561.893066
1027.304688	3501.055908
1026.179688	3615.837646
1025.053711	3626.622803
1023.927734	3565.809814
1022.801758	3604.308350
1021.675781	3675.109131
1020.549805	3538.159912
1019.422852	3546.641357
1018.295898	3628.943848
1017.167969	3607.417236
1016.041016	3597.429932
1014.913086	3675.057617
1013.785156	3685.805176
1012.657227	3539.836426
1011.528320	3645.075439
1010.400391	3621.267822
1009.271484	3592.863770
1008.141602	3592.103027
1007.012695	3681.126221
1005.882813	3585.978760
1004.752930	3605.929932
1003.623047	3616.669678
1002.492188	3638.905518
1001.362305	3585.241455
1000.231445	3584.481934
999.100586	3622.801025
997.968750	3628.928223
996.836914	3646.541260
995.705078	3668.741211
994.573242	3520.969482
993.441406	3598.297363
992.308594	3526.364502
991.175781	3585.295410
990.042969	3593.714600
988.910156	3576.892334
987.776367	3571.546143
986.642578	3669.404053
985.508789	3666.332764
984.375000	3697.648926
983.240234	3767.914063
982.105469	3659.417480
980.970703	3658.641113
979.834961	3600.603516
978.700195	3592.969482
977.564453	3640.286377
976.428711	3593.733643
975.291992	3551.777832
974.156250	3539.583740
973.019531	3577.720703
971.882813	3583.822266
970.745117	3633.365967
969.608398	3669.171875
968.470703	3522.114258
967.333008	3649.332764
966.195313	3561.741699
965.056641	3688.897461
963.917969	3599.051025
962.779297	3582.304199
961.640625	3556.433594
960.500977	3628.708496
959.361328	3589.148193
958.221680	3636.291504
957.082031	3699.379639
955.941406	3580.019531
954.800781	3538.222412
953.660156	3712.976318
952.519531	3605.082764
951.377930	3668.109375
950.237305	3660.495850
949.095703	3671.104248
947.953125	3549.649170
946.811523	3601.251221
945.668945	3593.657471
944.526367	3729.418213
943.382813	3621.702637
942.240234	3607.285400
941.096680	3724.764404
939.953125	3521.631348
938.809570	3727.725342
937.665039	3638.303467
936.520508	3548.919678
935.375977	3716.259033
934.231445	3758.618408
933.085938	3673.806396
931.941406	3725.236572
930.795898	3676.781250
929.649414	3685.074707
928.503906	3636.648193
927.357422	3688.041504
926.210938	3743.947998
925.063477	3774.891357
923.916992	3617.683350
922.769531	3635.042480
921.622070	3711.303467
920.474609	3764.878906
919.326172	3698.397705
918.177734	3763.274414
917.029297	3766.999756
915.880859	3709.613281
914.731445	3724.662354
913.583008	3653.734619
912.432617	3752.478760
911.283203	3778.815430
910.133789	3698.876953
908.983398	3700.348389
907.833008	3670.179688
906.681641	3707.807861
905.531250	3643.764893
904.379883	3665.572510
903.228516	3750.595703
902.077148	3664.008301
900.924805	3859.591553
899.772461	3813.635986
898.620117	3758.675293
897.467773	3726.294189
896.314453	3689.416260
895.161133	3792.343018
894.007813	3735.178711
892.854492	3702.829346
891.700195	3814.699463
890.545898	3928.774414
889.391602	3680.187012
888.237305	3787.485840
887.082031	3721.389160
885.926758	3869.147705
884.771484	3841.317139
883.616211	3604.261719
882.459961	3736.204346
881.304688	3735.405762
880.147461	3768.333496
878.991211	3812.486572
877.833984	3847.630615
876.676758	3804.115723
875.519531	3753.879395
874.362305	3777.782715
873.204102	3785.957031
872.045898	3841.273438
870.887695	3755.158203
869.729492	3868.803223
868.570313	3865.731934
867.411133	3851.446289
866.251953	3855.107422
865.092773	3789.259521
863.932617	3909.499756
862.772461	3901.939453
861.612305	3869.733887
860.451172	3891.308105
859.291016	3908.393066
858.129883	3851.574219
856.968750	3832.839111
855.806641	3867.831543
854.644531	3853.576172
853.482422	3870.649658
852.320313	3842.978027
851.158203	3942.793213
849.995117	3841.331543
848.832031	3923.220459
847.668945	3877.680176
846.504883	3905.897705
845.341797	3918.464844
844.177734	3917.625000
843.012695	3988.243164
841.848633	4016.411865
840.683594	3975.372803
839.518555	3954.436035
838.353516	3859.879883
837.187500	3881.358887
836.021484	4108.005859
834.855469	3946.585693
833.689453	4110.702148
832.522461	3875.801270
831.356445	4048.775391
830.188477	4088.007080
829.021484	4151.722168
827.854492	4115.201660
826.686523	4000.774170
825.518555	4019.948486
824.349609	4021.311035
823.181641	4009.322998
822.012695	4088.542725
820.843750	4096.560547
819.673828	3942.260010
818.504883	3948.082520
817.334961	3929.454102
816.164063	4081.932861
814.994141	4034.402588
813.823242	4037.978271
812.652344	3968.271240
811.481445	4089.527100
810.310547	3995.421875
809.138672	4018.974609
807.966797	4126.828613
806.794922	4112.631836
805.622070	4054.085938
804.450195	4050.997314
803.277344	4074.511475
802.103516	4071.418945
800.930664	3948.671143
799.756836	4080.745361
798.583008	4084.297607
797.409180	4050.202637
796.234375	4016.122070
795.059570	4110.437988
793.884766	4091.849609
792.709961	3978.130127
791.534180	3988.334473
790.359375	4053.823730
789.182617	3968.929443
788.006836	4125.029785
786.830078	4168.344727
785.654297	4061.383057
784.476563	4124.575684
783.299805	4068.469482
782.122070	4067.593506
780.944336	4174.898438
779.766602	4123.231445
778.588867	4117.929688
777.410156	4039.820801
776.231445	4127.185547
775.052734	4088.804688
773.873047	4030.595703
772.694336	4106.882813
771.514648	4150.077148
770.333984	4257.154297
769.154297	4113.040527
767.973633	4125.369141
766.792969	4100.257324
765.612305	4116.985840
764.430664	4133.707520
763.249023	4238.447266
762.067383	4197.930176
760.885742	4106.836914
759.703125	4055.369141
758.520508	4215.003418
757.337891	4066.809570
756.155273	4085.712402
754.971680	4091.422852
753.788086	4266.288574
752.604492	4063.300781
751.420898	4088.774902
750.236328	4101.064941
749.051758	4155.053711
747.867188	4046.627197
746.681641	4168.618164
745.497070	4130.428223
744.311523	4125.149902
743.125000	4137.414551
741.939453	4160.634766
740.752930	4100.561523
739.566406	4119.396484
738.379883	4186.417969
737.192383	4038.768799
736.004883	4081.691406
734.817383	4006.374023
733.629883	4029.584961
732.441406	4114.059082
731.252930	3935.953613
730.064453	3996.349609
728.875977	3977.990479
727.686523	4077.706543
726.497070	4017.803955
725.307617	3940.442871
724.117188	4114.392578
722.927734	3986.798828
721.737305	4068.931396
720.545898	4087.703857
719.355469	4064.988281
718.164063	4057.560791
716.972656	4161.427734
715.781250	4086.349365
714.588867	4100.733887
713.396484	4040.965576
712.204102	4118.581543
711.011719	4063.194580
709.818359	4101.543457
708.625000	4037.467773
707.431641	4152.049316
706.237305	4166.395996
705.043945	4069.685059
703.849609	4188.538574
702.655273	4039.627686
701.459961	4143.203125
700.264648	4085.740723
699.069336	4147.933594
697.874023	4147.035156
696.677734	4172.226563
695.482422	4090.895508
694.285156	4092.182129
693.088867	4145.614258
691.891602	4220.745605
690.695313	4224.174316
689.497070	4160.289551
688.299805	4107.286621
687.101563	4071.669434
685.903320	4103.335449
684.705078	4098.106934
683.506836	4151.442383
682.307617	4126.688477
681.108398	4175.658203
679.909180	4146.573730
678.708984	4234.525391
677.508789	4170.774414
676.308594	4146.041504
675.108398	4184.124023
673.907227	4235.181152
672.706055	4110.871094
671.504883	4133.785645
670.303711	4243.242676
669.101563	4099.540527
667.899414	4122.442383
666.697266	4221.017578
665.494141	4163.890625
664.291992	4158.663086
663.088867	4367.376953
661.884766	4357.786133
660.681641	4231.555664
659.477539	4383.967285
658.273438	4216.762207
657.068359	4310.826660
655.864258	4245.144043
654.659180	4289.533691
653.454102	4245.456055
652.248047	4302.766113
651.042969	4332.019043
649.836914	4279.336914
648.629883	4390.485840
647.423828	4236.533203
646.216797	4270.082520
645.009766	4340.234375
643.802734	4487.881348
642.594727	4286.673828
641.386719	4328.792480
640.178711	4373.044434
638.970703	4275.270020
637.761719	4278.641602
636.552734	4314.271973
635.343750	4358.487793
634.134766	4232.853516
632.924805	4320.052246
631.714844	4450.189453
630.504883	4341.803223
629.293945	4317.230957
628.083008	4335.617676
626.872070	4366.877441
625.661133	4284.360352
624.449219	4388.581055
623.237305	4278.202637
622.025391	4339.477539
620.813477	4267.760254
619.600586	4359.028320
618.387695	4302.342773
617.174805	4318.550781
615.960938	4332.608398
614.747070	4327.379395
613.533203	4270.749023
612.319336	4229.132813
611.104492	4352.380859
609.889648	4278.658203
608.674805	4234.926270
607.459961	4257.536621
606.244141	4318.639160
605.028320	4234.294434
603.812500	4389.449219
602.595703	4337.188965
601.379883	4257.168945
600.163086	4290.426758
598.945313	4306.579590
597.728516	4260.789551
596.510742	4285.482422
595.292969	4310.164551
594.074219	4290.014648
592.856445	4355.228027
591.637695	4367.077148
590.417969	4338.395508
589.199219	4395.024414
587.979492	4377.008789
586.759766	4341.947754
585.540039	4349.523438
584.319336	4421.014160
583.098633	4462.650879
581.877930	4427.601074
580.657227	4384.049316
579.435547	4446.953125
578.213867	4463.007813
576.992188	4440.753906
575.769531	4369.580566
574.547852	4404.782227
573.324219	4393.187012
572.101563	4387.974121
570.878906	4363.634277
569.655273	4481.681641
568.430664	4455.206543
567.207031	4456.355957
565.982422	4415.031738
564.757813	4392.834473
563.533203	4400.363770
562.308594	4497.023926
561.083008	4538.475098
559.857422	4361.413086
558.630859	4511.038574
557.405273	4543.977051
556.178711	4540.862305
554.952148	4463.567871
553.724609	4479.542480
552.498047	4614.146973
551.270508	4515.705566
550.041992	4408.836914
548.814453	4507.376465
547.585938	4514.855469
546.357422	4397.475098
545.127930	4525.571777
543.899414	4505.542480
542.669922	4534.162598
541.440430	4615.628906
540.209961	4661.122559
538.979492	4588.244141
537.749023	4654.853027
536.518555	4839.732422
535.287109	4686.604980
534.056641	4725.696777
532.824219	4741.549316
531.592773	4852.373535
530.360352	4752.130859
529.127930	4757.417480
527.895508	4777.466309
526.663086	4746.895020
525.429688	4910.303223
524.196289	4706.870605
522.961914	4819.637207
521.728516	4755.371094
520.494141	4731.156250
519.259766	4786.979980
518.024414	4712.234863
516.789063	4801.719238
515.553711	4682.805176
514.318359	4900.610840
513.083008	4754.378418
511.846680	4833.257813
510.610352	4724.954102
509.373047	4791.190430
508.135742	4933.063965
506.898438	4749.158691
505.661133	4752.316895
504.423828	4740.770020
503.185547	4680.927734
501.947266	4797.474121
500.708008	4668.375000
499.469727	4738.702148
498.230469	4722.973145
496.991211	4673.687012
495.750977	4733.479492
494.511719	4619.212402
493.270508	4590.944336
492.030273	4589.934570
490.790039	4572.161621
489.548828	4684.282227
488.307617	4431.914551
487.065430	4627.776855
485.823242	4618.384277
484.581055	4571.319824
483.338867	4559.850586
482.096680	4663.455566
480.853516	4576.668457
479.610352	4489.919434
478.366211	4620.650879
477.123047	4586.187988
475.878906	4599.807129
474.633789	4651.029297
473.389648	4574.802734
472.144531	4567.529785
470.899414	4468.385742
469.654297	4621.881836
468.408203	4612.515137
467.162109	4688.704590
465.916016	4558.327637
464.668945	4630.323242
463.422852	4633.473145
462.175781	4655.384766
460.927734	4554.309570
459.680664	4701.261719
458.432617	4560.635254
457.184570	4655.446289
455.935547	4612.769531
454.686523	4742.921387
453.437500	4614.897949
452.188477	4657.583984
450.938477	4698.169922
449.689453	4697.133301
448.438477	4700.256348
447.188477	4740.805176
445.937500	4831.227539
444.686523	4618.166504
443.435547	4712.731445
442.183594	4780.247559
440.932617	4750.113770
439.680664	4728.299805
438.427734	4704.418457
437.174805	4773.951172
435.921875	4627.634766
434.668945	4740.721680
433.416016	4808.125000
432.162109	4836.096191
430.908203	4716.847168
429.653320	4881.635254
428.399414	4727.197266
427.144531	4784.167480
425.888672	4677.463379
424.633789	4740.631836
423.377930	4890.737305
422.122070	4726.115234
420.866211	4683.676758
419.609375	4852.317383
418.352539	4876.069336
417.095703	4920.493652
415.837891	4902.862305
414.580078	4771.532227
413.322266	4778.744629
412.064453	4990.534180
410.805664	4904.723145
409.546875	4899.506836
408.288086	4925.269043
407.029297	4901.467773
405.769531	4939.602539
404.509766	4938.508789
403.249023	4931.225586
401.989258	4948.699219
400.728516	5023.910645
399.466797	5031.045898
398.206055	4930.982422
396.944336	4845.389648
395.682617	5021.521973
394.420898	4956.547363
393.158203	4910.137695
391.895508	4843.156250
390.632813	4895.609863
389.369141	4896.583008
388.105469	4782.318848
386.841797	4857.380371
385.578125	5010.570313
384.313477	4997.120605
383.048828	4802.751465
381.784180	4962.016602
380.519531	4925.980469
379.253906	4904.341797
377.988281	4853.954590
376.721680	4939.133301
375.456055	4888.759766
374.189453	5008.789551
372.921875	4886.590820
371.655273	4920.388184
370.387695	4841.342773
369.120117	4866.930664
367.851563	4968.375488
366.583984	4862.720215
365.315430	4683.325684
364.045898	4954.821777
362.777344	4988.549316
361.507813	4958.766602
360.238281	5000.668457
358.967773	4942.232910
357.698242	4959.556641
356.427734	4899.109375
355.156250	4883.699219
353.885742	4954.206543
352.614258	5024.682617
351.342773	4933.604004
350.070313	4924.331055
348.798828	5049.944824
347.526367	4926.228516
346.252930	4988.459473
344.980469	4872.980469
343.707031	4929.069336
342.433594	4962.677246
341.159180	4937.082031
339.884766	4880.890625
338.610352	5034.848633
337.335938	4872.600586
336.060547	5197.779785
334.785156	4976.444336
333.509766	4979.413574
332.233398	5114.837402
330.958008	4969.048340
329.681641	5018.864258
328.404297	4997.383301
327.127930	4982.019043
325.850586	5086.756348
324.572266	5095.799316
323.294922	5096.699219
322.016602	5044.710449
320.738281	4964.272461
319.458984	5062.795898
318.180664	5057.602539
316.901367	5135.737305
315.621094	5150.848145
314.341797	5247.209961
313.061523	5071.375488
311.781250	5129.130859
310.500000	5188.890137
309.218750	5110.607422
307.937500	5243.394043
306.656250	5177.306152
305.374023	5228.886719
304.091797	5142.552246
302.809570	5340.087402
301.527344	5381.461914
300.244141	5331.626465
298.960938	5409.451660
297.676758	5264.430176
296.393555	5287.557129
295.109375	5100.108887
293.824219	5477.497070
292.540039	5411.514648
291.254883	5284.861816
289.969727	5372.687988
288.683594	5389.689941
287.398438	5346.025879
286.111328	5253.865234
284.825195	5347.681152
283.538086	5338.404297
282.251953	5468.521484
280.963867	5325.921387
279.676758	5476.174805
278.388672	5476.970215
277.100586	5520.149902
275.812500	5531.023926
274.523438	5547.944824
273.234375	5758.488281
271.945313	5692.672363
270.655273	5844.622070
269.365234	5671.986816
268.075195	5817.827148
266.784180	5895.101074
265.494141	5849.468750
264.203125	5968.990234
262.911133	5917.320801
261.620117	5865.674316
260.328125	6031.397949
259.035156	5939.507324
257.743164	5928.120605
256.450195	5600.991211
255.157227	5796.784668
253.863281	5707.037109
252.570313	5697.720703
251.276367	5670.324219
249.981445	5781.552246
248.687500	5707.954590
247.392578	5770.931641
246.097656	5707.406250
244.801758	5766.340332
243.505859	5588.465820
242.209961	5689.529297
240.914063	5557.882324
239.617188	5496.478516
238.320313	5475.198730
237.023438	5409.832031
235.725586	5384.572266
234.427734	5479.533203
233.129883	5536.393066
231.832031	5493.097656
230.533203	5417.787109
229.234375	5318.489746
227.935547	5449.379395
226.635742	5542.194336
225.335938	5346.918457
224.036133	5509.710449
222.735352	5402.504395
221.434570	5479.253418
220.133789	5500.008301
218.833008	5408.859863
217.531250	5505.531250
216.229492	5544.239746
214.926758	5439.164063
213.625000	5467.888184
212.322266	5338.925781
211.019531	5491.374023
209.715820	5466.201660
208.412109	5520.820801
207.108398	5401.931152
205.803711	5532.296875
204.500000	5493.184082
203.195313	5346.481445
201.889648	5444.894531
200.584961	5656.796875
199.279297	5428.508301
197.972656	5532.808105
196.666992	5517.631836
195.360352	5454.700195
194.053711	5463.422363
192.746094	5603.423828
191.439453	5496.763184
190.131836	5551.198242
188.823242	5528.084473
187.514648	5548.702148
186.207031	5567.323730
184.897461	5635.597656
183.588867	5407.924316
182.279297	5430.534668
180.969727	5635.765625
179.659180	5592.819336
178.348633	5748.315430
177.038086	5669.654297
175.727539	5690.194824
174.416016	5750.383789
173.104492	5798.650879
171.792969	5731.939453
170.480469	5754.427734
169.167969	5745.207520
167.855469	5939.999023
166.542969	5821.829102
165.229492	5765.083984
163.916016	6086.415039
162.601563	5990.058105
161.288086	5951.118652
159.973633	5983.403320
158.658203	6001.830566
157.343750	6194.233398
156.028320	6030.751953
154.712891	6333.728027
153.396484	6403.427734
152.080078	6390.132324
150.763672	6426.213867
149.447266	6624.181641
148.129883	6914.836426
146.812500	7173.782715
145.494141	7408.935059
144.176758	7744.585449
142.858398	7955.835449
141.540039	8019.108398
140.220703	8224.286133
138.901367	7796.724609
137.582031	7816.639648
136.261719	7501.650391
134.942383	7440.871094
133.622070	7307.263184
132.300781	7520.194824
130.979492	7528.338379
129.658203	7491.218750
128.336914	7646.911621
127.014648	7694.355957
125.693359	7867.629395
124.370117	8113.564453
123.047852	8145.145508
121.724609	8210.118164
120.401367	8090.385254
119.077148	8157.303711
117.752930	8338.088867
116.428711	8322.461914
115.104492	8457.981445
113.779297	8475.693359
112.454102	8469.853516
111.128906	8426.746094
109.802734	8664.093750
108.476563	8718.993164
107.150391	8732.703125
105.824219	8862.031250
104.497070	8813.003906
103.169922	8613.164063
101.841797	8744.388672
100.514648	8752.199219
